global_

_refine_ls_goodness_of_fit_all 1417.564
_refine_ls_number_reflns 2113

data_powder1

_setup_wavelength 2.4000
_setup_field 2.50
_setup_offset_2theta -0.1882(32)

_pd_instr_resolution_U 3.754(18)
_pd_instr_resolution_V -3.954(20)
_pd_instr_resolution_W 1.1811(57)
_pd_instr_resolution_X 0.7499(17)
_pd_instr_resolution_Y 0.00000

_diffrn_radiation_polarization 1.0
_diffrn_radiation_efficiency 1.0

_chi2_sum True
_chi2_diff True
_chi2_up False
_chi2_down False

_range_2theta_min 16.0
_range_2theta_max 125.0

_pd_instr_reflex_asymmetry_p1 0.5489(27)
_pd_instr_reflex_asymmetry_p2 0.20674(67)
_pd_instr_reflex_asymmetry_p3 -1.304(11)
_pd_instr_reflex_asymmetry_p4 -0.4997(14)

_refine_ls_goodness_of_fit_all 1417.564
_refine_ls_number_reflns 2113
_refine_ls_weighting_scheme sigma

loop_
_phase_label
_phase_scale
_phase_igsize
  phase1   5.2012(14)   0.0

loop_
_pd_background_2theta
_pd_background_intensity
   17.0    610.3910022321259
   20.0    608.6061272616328
   30.0    583.2276214042249
   40.0     571.860088105868
   55.0    635.2133004930868
   60.0    646.0243970866184
   75.0    579.5827895238951
   85.0   462.13391407105905
  100.0    572.8031399497061
  120.0    555.7099635732841

loop_
_pd_meas_2theta
_pd_meas_intensity_plus
_pd_meas_intensity_plus_sigma
_pd_meas_intensity_minus
_pd_meas_intensity_minus_sigma
    6.05   385.561   3.57417    383.17    3.5621
    6.15   385.956   3.57474   383.069    3.5627
    6.25    381.59   3.55479   377.669   3.53487
    6.35   371.038    3.5066   371.584   3.51067
    6.45   364.855   3.47607   368.831   3.49513
    6.55   369.762   3.49861   368.038   3.48981
    6.65   365.562   3.47918   358.715   3.44838
    6.75   364.528   3.47896   365.877    3.4836
    6.85   360.361   3.45529   358.208    3.4475
    6.95   355.356   3.43327   356.443    3.4372
    7.05   350.856   3.41152    356.81   3.44202
    7.15   356.821   3.43957   355.929     3.434
    7.25   358.328   3.44674   357.276   3.44443
    7.35   344.766   3.38168   349.159   3.40566
    7.45   343.349   3.37103   348.418   3.40329
    7.55   348.545   3.40275   344.344   3.38015
    7.65   336.869   3.34338    345.82   3.38747
    7.75   343.522   3.37322   342.923   3.37385
    7.85   344.776   3.38178   346.057   3.38929
    7.95    345.14   3.38584   342.104   3.36873
    8.05   338.126   3.34795   337.473   3.34477
    8.15   338.886   3.35481   337.965   3.35046
    8.25   339.224    3.3516   331.191   3.31207
    8.35   333.311   3.32581   338.699    3.3533
    8.45   339.055   3.35369   337.333   3.34667
    8.55   336.622    3.3406   333.131   3.32533
    8.65   335.232   2.35334   336.651   2.35796
    8.75   330.059   2.33422   340.035   2.37172
    8.85   335.973   2.35563   334.317   2.34929
    8.95    339.47   2.36929   332.718   2.34442
    9.05   327.489   2.32584   333.881   2.34807
    9.15    332.14   2.34192   329.536    2.3314
    9.25   331.526   2.33992   331.609   2.34033
    9.35   332.643   2.34546   332.904   2.34631
    9.45   333.462   2.34693   327.711   2.32829
    9.55   331.223   2.34116   335.133   2.35356
    9.65   329.265   2.33339   330.172   2.33637
    9.75   335.497   2.35444   326.621   2.32208
    9.85     325.5   2.31903   332.241   2.34281
    9.95   327.027   2.32414   328.015   2.32939
   10.05   326.551   2.32222   326.209   2.32244
   10.15   325.535   2.32046   328.109   2.32842
   10.25   327.101   2.32378   326.973   2.32428
   10.35   324.791   2.31522   330.896   2.33926
   10.45   324.435   2.31515    325.16   2.31767
   10.55   326.338   2.32223   329.762   2.33399
   10.65   325.452   2.31799   325.464   2.31925
   10.75   326.572   2.32419   326.306   2.32348
   10.85   318.779   2.29391   324.217   2.31377
   10.95   325.328   2.31869   321.773   2.30586
   11.05   322.154   2.30652   323.269   2.31202
   11.15   321.214    2.3028   317.338     2.289
   11.25    317.37   2.08581    320.53   2.09699
   11.35   317.047   1.85777   321.478   1.87153
   11.45   319.007   1.86302   318.253     1.861
   11.55   317.918    1.8606   317.964   1.85988
   11.65   319.226   1.86389   315.623   1.85334
   11.75   321.644   1.87145   318.825   1.86218
   11.85   317.852   1.86041   319.667   1.86516
   11.95   317.774    1.8595   317.541   1.85999
   12.05   317.775   2.07381   318.507   2.07854
   12.15   321.643   2.28605   315.324   2.26168
   12.25   320.419   2.27994   316.456   2.26555
   12.35   317.237   2.26789   316.359   2.26457
   12.45   321.203   2.28241   317.746   2.26892
   12.55   320.657   2.27927   320.822   2.28212
   12.65   323.357   2.28992   321.729   2.28452
   12.75   320.089   2.27823   324.977   2.29615
   12.85   323.958   2.29142   321.838   2.28455
   12.95   324.502   2.29343   322.918    2.2887
   13.05   324.169   2.29165   320.279   2.27888
   13.15   323.468   2.29013   325.388   2.29666
   13.25   323.596      2.29   320.576   2.28002
   13.35   318.655   2.27384    317.34    2.2699
   13.45    318.02    2.2703   320.466   2.27935
   13.55   317.214    2.2672   313.883   2.25512
   13.65   319.213   2.27459   315.477   2.26249
   13.75   312.643   2.25157   312.212   2.24939
   13.85   311.182   2.24524   309.784   2.24146
   13.95   312.348   2.25079   308.838   2.23884
   14.05   312.925   1.84026   311.737   1.83687
   14.15   309.149   1.82954   313.508   1.84254
   14.25   310.163   1.83272   304.985    1.8161
   14.35   313.211   1.84146   311.919   1.83746
   14.45   311.596    1.8367   309.941   1.83125
   14.55   309.744   1.83085   313.133   1.84082
   14.65   311.035    2.0475     310.5   2.04641
   14.75   312.222   2.24632   313.488   2.24985
   14.85   310.944   2.24043   308.906   2.23324
   14.95   311.372   2.24189    309.39   2.23434
   15.05   311.211   2.24101   304.049   2.21497
   15.15   312.465   2.24499   316.028   2.25711
   15.25   307.319   2.22718   313.399   2.24903
   15.35   309.098   2.23323   316.331   2.26032
   15.45   313.143   2.24644   309.684   2.23618
   15.55   315.909   2.25741   310.801   2.23951
   15.65   310.235   2.23724   309.486   2.23527
   15.75   311.527   2.24091   314.058   2.25075
   15.85   309.833   2.23568   311.287    2.2418
   15.95   310.658   2.23976   310.055   2.23728
   16.05   309.958   2.23623   312.744   2.24653
   16.15   310.687    2.2394   313.736   2.25087
   16.25   310.367    2.2368   310.162   2.23572
   16.35   307.974   2.22878   309.816   2.23637
   16.45   306.999   2.22492   310.006   2.23629
   16.55   312.125    2.2444   305.663   2.22185
   16.65   309.807   2.23578   306.227   2.22236
   16.75     312.3   2.05063   309.389   2.04193
   16.85   308.606   1.82082   310.059   1.82558
   16.95   305.217   1.81155   308.545   1.82024
   17.05   306.467   1.81542   306.721   1.81536
   17.15   307.755   1.81859   304.178   1.80828
   17.25   311.371   1.82954   307.422    1.8178
   17.35   305.437   2.22544   308.878   2.23772
   17.45   310.243    2.2422   308.633   2.23794
   17.55    308.09   2.23607   303.389   2.21842
   17.65   306.728   2.23147   306.895   2.23039
   17.75   310.457   2.24345   307.617   2.23316
   17.85   311.174   2.24594   311.434   2.24624
   17.95   309.718   2.24051   309.702   2.24116
   18.05   307.144   2.23161   308.401   2.23644
   18.15   305.888   2.22678   309.106   2.23943
   18.25   306.334   2.22707   308.069   2.23538
   18.35   310.135   2.24253   309.445   2.24082
   18.45   306.909    2.2306   309.826   2.24048
   18.55   307.096    2.2299   307.594   2.23352
   18.65   308.222   2.23543   306.868   2.23107
   18.75   307.897   2.23472    306.26   2.22848
   18.85   308.043   2.23484   308.998   2.23912
   18.95   309.485   2.23959   306.544   2.22866
   19.05   310.967   2.24404   309.298   2.23917
   19.15   308.617   2.23641   308.093    2.2342
   19.25   309.159   2.23881   310.812   2.24525
   19.35    311.48   2.24785   315.512   2.26239
   19.45   314.551   2.07591   313.275   2.07045
   19.55   317.382   1.88252   319.528   1.88997
   19.65   317.568   1.88422   323.472   1.90126
   19.75   324.391   1.90506   325.885   1.90759
   19.85   328.819   1.91654   332.823    1.9289
   19.95   332.148   1.92647   334.306   1.93254
   20.05   328.985   2.15427   334.034   2.17032
   20.15   329.452   2.36685   330.395   2.37246
   20.25   322.962   2.34499   323.374   2.34637
   20.35   317.493   2.32616   322.529    2.3429
   20.45   317.055   2.32283    311.53   2.30309
   20.55   313.529   2.30948   308.802    2.2917
   20.65    307.85   2.28861   309.784   2.29539
   20.75   306.358   2.28326   311.022   2.30096
   20.85   312.868   2.30675   310.354   2.29923
   20.95   310.717    2.2989   309.094   2.29368
   21.05   309.987    2.2962   312.805   2.30741
   21.15   310.336   2.29772   311.963   2.30427
   21.25   309.888   2.29515   313.249   2.30861
   21.35   306.895   2.28549   310.163    2.2975
   21.45   306.927   2.28535   314.591   2.31367
   21.55   311.814   2.30386   306.413   2.28469
   21.65   302.909   2.26964   301.423   2.26461
   21.75   307.534   2.28677   310.116   2.29608
   21.85   309.856   2.29567   310.315   2.29838
   21.95   308.372   2.29053    308.48   2.29089
   22.05   309.517   2.29512   309.942   2.29757
   22.15   309.425   1.88425   309.332   1.88435
   22.25   309.908   1.88562   311.983   1.89262
   22.35    312.13   1.89316   313.069   1.89551
   22.45   312.587   1.89485   309.546    1.8844
   22.55   312.703   1.89437   314.126   1.89861
   22.65   312.924   1.89505   314.585   1.89968
   22.75   313.745    1.8979   309.142   1.88396
   22.85   310.826   2.35515   313.167   2.36476
   22.95   312.548   2.36157   311.484   2.35797
   23.05   308.902    2.3484   313.578   2.36496
   23.15   308.286   2.34528   306.591   2.33944
   23.25   310.626   2.35356   307.301   2.33982
   23.35   305.778    2.3348    303.41   2.32643
   23.45   304.267   2.33013   305.603   2.33509
   23.55   305.235   2.33187   301.214    2.3193
   23.65     304.2   2.32996   309.219    2.3481
   23.75   305.608   2.33364   305.167   2.33306
   23.85   301.069   2.31605   306.784   2.33996
   23.95   310.032   2.35116   305.862   2.33523
   24.05   307.364   2.34186   309.611   2.35013
   24.15   304.309   2.32942   305.577   2.33469
   24.25   309.253   2.34944   309.217   2.34965
   24.35   310.873   2.35334    311.23    2.3553
   24.45   307.883   2.34343   309.769   2.35038
   24.55   311.025   2.35456   311.852   2.35893
   24.65   311.344   2.35522   309.053   2.34731
   24.75   314.575   2.36931   314.583   2.36944
   24.85   313.159   1.94452   314.441   1.94915
   24.95   314.341   1.94807   314.523   1.94886
   25.05   314.687   1.94966   315.197   1.95035
   25.15   314.589   1.94928   316.865   1.95569
   25.25   313.395   1.94558   312.141   1.94086
   25.35   312.418   1.94206   309.228   1.93222
   25.45   310.157   1.93527    314.59   1.94977
   25.55   315.103   2.39402   315.546   2.39594
   25.65   314.975   2.39367   313.785   2.38912
   25.75   318.155   2.40558   320.613   2.41356
   25.85   320.421   2.41348   313.911   2.38883
   25.95   320.392   2.41306   320.657   2.41253
   26.05   324.905   2.42934   321.738   2.41935
   26.15   326.728   2.43752    326.69    2.4371
   26.25   335.565   2.46859   336.469   2.47411
   26.35   351.319    2.5265   347.551   2.51321
   26.45   371.663   2.59866   370.255   2.59497
   26.55   399.592   2.69374   401.429   2.70079
   26.65   435.996   2.81423   430.779   2.79827
   26.75   465.315   2.90833   464.995   2.90792
   26.85   485.927   2.97204   478.473   2.94938
   26.95   485.624   2.97158   470.768   2.92617
   27.05   464.729   2.90495   453.709   2.87002
   27.15   428.493   2.79014     424.8   2.77956
   27.25   388.989   2.65821    386.83    2.6507
   27.35   363.304    2.5685   363.113    2.5692
   27.45   351.667   2.52939   349.258    2.5199
   27.55   346.334   2.28482   342.881   2.27356
   27.65   341.692   2.01931   342.727   2.02302
   27.75   338.991   2.01222   336.214   2.00316
   27.85   335.519   2.00222   335.412   2.00062
   27.95   335.408   2.00123   333.586   1.99577
   28.05   333.704    1.9959    336.39   2.00424
   28.15   341.383   2.26215   340.748   2.26356
   28.25   346.705   2.50134   344.877   2.49649
   28.35   355.867    2.5361   349.659   2.51326
   28.45   359.783   2.55037   354.584   2.52997
   28.55   370.162   2.58514   366.341   2.57172
   28.65   391.284   2.65774   390.831    2.6554
   28.75   418.734   2.74918   418.834   2.75037
   28.85   471.791   2.91869   463.974   2.89481
   28.95   547.028   3.14244     541.2   3.12702
   29.05   627.318   3.36321   620.221   3.34707
   29.15   714.605   3.59225    693.75   3.54069
   29.25   744.548   3.66635   728.869    3.6264
   29.35    731.48   3.63175   710.934   3.58332
   29.45   658.247   3.44736   645.065   3.41357
   29.55   555.815   3.16854   550.157   3.15195
   29.65   475.079    2.9288   473.293   2.92435
   29.75   415.392   2.73812   416.536   2.74156
   29.85   378.057   2.61108   379.058   2.61588
   29.95   363.011   2.55959   358.348   2.54276
   30.05   355.842   2.53469   354.022   2.52873
   30.15   347.377   2.50509   351.888   2.52135
   30.25   349.617   2.03255   354.011    2.0458
   30.35   351.711    2.0385    354.86   2.04886
   30.45   357.972   2.05775   355.689   2.05006
   30.55    365.44   2.07972   363.773    2.0737
   30.65   376.443   2.10926   376.551   2.10993
   30.75   396.734    2.1653   397.766    2.1676
   30.85   443.859   2.54828   442.126   2.54478
   30.95   501.214    2.9446   504.843   2.95614
   31.05   588.606     3.191   598.722    3.2187
   31.15    698.39    3.4766   714.997   3.51602
   31.25   803.235   3.72724   827.164   3.78336
   31.35   875.939    3.8913   893.103   3.92737
   31.45   885.922   3.91289   903.608    3.9529
   31.55   826.727   3.78164   840.776   3.81345
   31.65   724.536   3.53727   734.113   3.56491
   31.75   625.674   3.29002   630.689   3.30172
   31.85    544.85   3.06789   553.328   3.09315
   31.95   512.172   2.97423    513.44   2.98048
   32.05   508.088   2.96343   502.036   2.94567
   32.15   528.321   3.02293   521.502   3.00305
   32.25   581.262   3.16977   579.403   3.16529
   32.35   672.571   3.41134   665.824   3.39464
   32.45   796.064   3.70784   783.548   3.67948
   32.55   926.665   4.00292   916.295   3.98006
   32.65   1028.65   4.21598   1019.14   4.19863
   32.75   1059.17   4.27708   1039.93    4.2394
   32.85   1016.38    4.1931   985.282   4.12863
   32.95   877.764   3.58618   864.339   3.56003
   33.05   719.682   2.90831   714.689   2.89847
   33.15   584.762   2.62239   580.501   2.61254
   33.25   490.526   2.40191    490.67   2.40064
   33.35   436.396   2.26544   433.457   2.25731
   33.45   401.467    2.1727   401.355   2.17279
   33.55   387.869   2.13609   386.835   2.13314
   33.65   393.818   2.64373    395.49   2.65119
   33.75   408.977   2.69613    409.04   2.69572
   33.85   443.847   2.80916   444.314   2.80851
   33.95   487.032   2.94066   498.959   2.97638
   34.05   547.735   3.11838   566.847   3.17135
   34.15   613.176   3.29917   627.449   3.33839
   34.25   645.507   3.38566   661.529   3.42784
   34.35   632.575   3.35118   643.752   3.38213
   34.45   573.557   3.18909   582.797   3.21762
   34.55   495.206   2.96552   506.083   2.99894
   34.65   433.829   2.77537    435.85   2.78097
   34.75   384.795   2.61222   387.409   2.62321
   34.85   358.759    2.5239   362.515   2.53774
   34.95   345.381   2.47694   347.741   2.48507
   35.05   341.274   2.46172   338.364    2.4521
   35.15    336.09   2.44243   334.359   2.43585
   35.25   327.284   2.40924    329.24   2.41768
   35.35   328.147   2.41337   326.811   2.40811
   35.45   322.468   2.39286   325.709   2.40535
   35.55   327.754   2.41309   327.164   2.41097
   35.65   326.356   1.94864   324.259   1.94285
   35.75   323.683   1.94052   323.499   1.94116
   35.85   322.544   1.93822   327.521   1.95205
   35.95   326.313   1.95009   327.619   1.95278
   36.05    329.28    1.9575   329.034   1.95711
   36.15   330.797   1.96195   331.865   1.96466
   36.25   336.918   2.22109   334.767   2.21366
   36.35   342.242   2.45741   342.054   2.45751
   36.45   352.708   2.49465   350.683   2.48787
   36.55   372.919   2.56576   372.912    2.5645
   36.65   393.914   2.63613   384.132   2.60388
   36.75   408.914   2.68517   404.405   2.66906
   36.85   423.329   2.73172   411.199   2.69311
   36.95   426.336   2.74269   415.876   2.70868
   37.05   402.478   2.66261   401.838   2.66375
   37.15   389.953   2.62317   385.614   2.60741
   37.25   367.847   2.54585   366.049   2.54084
   37.35   356.375   2.50565   361.384   2.52537
   37.45   356.408   2.50668   351.139   2.48803
   37.55   357.634   2.51189     356.3   2.50692
   37.65   358.897    2.5155   364.603   2.53588
   37.75   355.092   2.50338   367.358   2.54662
   37.85   360.035   2.51834    359.78    2.5181
   37.95   356.144   2.50625    355.47   2.50362
   38.05   348.497   2.47835   357.737   2.51231
   38.15   353.006   2.49376   352.915   2.49424
   38.25    357.15   2.51035   354.571   2.50139
   38.35   369.623   2.08507   362.922   2.06676
   38.45    381.73   2.11883   379.127   2.11184
   38.55   400.603   2.17114   396.543   2.15911
   38.65   436.935   2.26736   433.786   2.25847
   38.75   496.839   2.41783    487.65   2.39433
   38.85   590.818   2.63592   592.624   2.64007
   38.95   764.429   2.99861   763.503   2.99803
   39.05   1005.18    4.1714   987.157    4.1342
   39.15   1297.47   4.73957   1296.94   4.73855
   39.25   1562.61   5.20086   1546.82    5.1719
   39.35   1697.42   5.41919   1662.25   5.36275
   39.45   1596.73   5.25529   1584.66   5.23216
   39.55    1339.4   4.81196   1340.05   4.81688
   39.65   1042.92   4.24856   1034.25   4.23029
   39.75   794.093   3.70465   791.026   3.70087
   39.85   642.498   3.33317   649.858   3.35263
   39.95   579.992   3.16695    590.16   3.19613
   40.05   579.054   3.16347   571.644   3.14418
   40.15   621.118    3.2769   632.148   3.30695
   40.25    726.91    3.5462   737.461   3.57263
   40.35   905.483   3.95789   910.605   3.96952
   40.45   1118.65   4.39983   1136.62   4.43569
   40.55   1374.28   4.87346   1408.17   4.93265
   40.65   1573.84    5.2167   1608.47   5.27667
   40.75   1628.56   5.30612   1646.34   5.33482
   40.85   1475.45   5.04972   1500.45   5.09497
   40.95   1184.78   4.21435   1206.12   4.24979
   41.05   865.981   3.25932     880.5   3.28854
   41.15   636.662   2.79507   640.206   2.80404
   41.25    500.69   2.48021   504.838   2.48849
   41.35   428.133   2.29309    429.67   2.29668
   41.45    392.96   2.19665   390.043   2.18815
   41.55   369.816   2.13088   369.896   2.13081
   41.65   359.526   2.38276    361.51   2.39424
   41.75   349.208   2.59464   347.461   2.58946
   41.85   344.717   2.58079   342.588   2.57077
   41.95   340.463   2.56285   347.837   2.59018
   42.05   338.981   2.55647   340.872   2.56339
   42.15   338.266    2.5542   336.992   2.54808
   42.25   336.952   2.54792   337.597   2.55287
   42.35   335.313   2.54288   335.659   2.54462
   42.45   337.619    2.5515   333.226   2.53553
   42.55   336.926    2.5483   334.628   2.54032
   42.65   332.019   2.52978   331.712   2.52957
   42.75   335.379   2.54192   330.136   2.52307
   42.85   335.724   2.54424   336.343    2.5463
   42.95   336.056   2.54486   337.697   2.55187
   43.05   331.433   2.52884   335.303   2.54441
   43.15   327.591   2.51273   332.141    2.5305
   43.25    329.59   2.52014   327.851   2.51332
   43.35   328.292   2.51544   322.579   2.49485
   43.45    323.85   2.49893   323.558   2.49713
   43.55   325.198   2.50293   324.318   2.50098
   43.65   322.064   2.49235   321.909   2.49257
   43.75   323.165   2.01444   320.825   2.00724
   43.85   322.533   2.01292   321.981   2.01136
   43.95   320.121   2.00558    318.92   2.00041
